Nov. 23, 2024   18:41:49
Cyclic Voltammetry
File: d:\yx\20241123\6-3\cv-20.bin
Data Source:  Experiment
Instrument Model:  CHI660E
Header: 
Note: 

Init E (V) = 0.47
High E (V) = 0.57
Low E (V) = 0.47
Init P/N = P
Scan Rate (V/s) = 0.02
Segment = 10
Sample Interval (V) = 0.001
Quiet Time (sec) = 2
Sensitivity (A/V) = 0.001

Results:

Channel 1:
Segment 1:

Segment 2:

Segment 3:

Segment 4:

Segment 5:

Segment 6:

Segment 7:

Segment 8:

Segment 9:

Segment 10:

Potential/V, Current/A

0.470, -1.793e-5
0.471, 1.025e-4
0.472, 1.885e-4
0.473, 2.468e-4
0.474, 2.755e-4
0.475, 2.894e-4
0.476, 3.115e-4
0.477, 3.337e-4
0.478, 3.474e-4
0.479, 3.494e-4
0.480, 3.484e-4
0.481, 3.607e-4
0.482, 3.745e-4
0.483, 3.799e-4
0.484, 3.752e-4
0.485, 3.736e-4
0.486, 3.848e-4
0.487, 3.967e-4
0.488, 3.965e-4
0.489, 3.895e-4
0.490, 3.907e-4
0.491, 4.011e-4
0.492, 4.105e-4
0.493, 4.076e-4
0.494, 3.991e-4
0.495, 4.032e-4
0.496, 4.136e-4
0.497, 4.198e-4
0.498, 4.142e-4
0.499, 4.069e-4
0.500, 4.134e-4
0.501, 4.226e-4
0.502, 4.260e-4
0.503, 4.197e-4
0.504, 4.125e-4
0.505, 4.207e-4
0.506, 4.308e-4
0.507, 4.312e-4
0.508, 4.220e-4
0.509, 4.197e-4
0.510, 4.286e-4
0.511, 4.368e-4
0.512, 4.342e-4
0.513, 4.244e-4
0.514, 4.255e-4
0.515, 4.345e-4
0.516, 4.414e-4
0.517, 4.367e-4
0.518, 4.266e-4
0.519, 4.307e-4
0.520, 4.397e-4
0.521, 4.447e-4
0.522, 4.386e-4
0.523, 4.293e-4
0.524, 4.363e-4
0.525, 4.450e-4
0.526, 4.472e-4
0.527, 4.393e-4
0.528, 4.328e-4
0.529, 4.399e-4
0.530, 4.488e-4
0.531, 4.493e-4
0.532, 4.400e-4
0.533, 4.350e-4
0.534, 4.435e-4
0.535, 4.528e-4
0.536, 4.503e-4
0.537, 4.407e-4
0.538, 4.389e-4
0.539, 4.470e-4
0.540, 4.550e-4
0.541, 4.513e-4
0.542, 4.407e-4
0.543, 4.421e-4
0.544, 4.509e-4
0.545, 4.565e-4
0.546, 4.518e-4
0.547, 4.411e-4
0.548, 4.455e-4
0.549, 4.540e-4
0.550, 4.584e-4
0.551, 4.524e-4
0.552, 4.419e-4
0.553, 4.479e-4
0.554, 4.576e-4
0.555, 4.594e-4
0.556, 4.519e-4
0.557, 4.443e-4
0.558, 4.507e-4
0.559, 4.596e-4
0.560, 4.603e-4
0.561, 4.520e-4
0.562, 4.457e-4
0.563, 4.543e-4
0.564, 4.637e-4
0.565, 4.611e-4
0.566, 4.504e-4
0.567, 4.492e-4
0.568, 4.577e-4
0.569, 4.645e-4
0.570, 3.616e-4
0.569, 1.003e-4
0.568, -5.362e-5
0.567, -1.420e-4
0.566, -2.029e-4
0.565, -2.554e-4
0.564, -2.950e-4
0.563, -3.140e-4
0.562, -3.200e-4
0.561, -3.329e-4
0.560, -3.514e-4
0.559, -3.639e-4
0.558, -3.628e-4
0.557, -3.580e-4
0.556, -3.673e-4
0.555, -3.803e-4
0.554, -3.842e-4
0.553, -3.779e-4
0.552, -3.740e-4
0.551, -3.830e-4
0.550, -3.930e-4
0.549, -3.936e-4
0.548, -3.846e-4
0.547, -3.828e-4
0.546, -3.930e-4
0.545, -4.013e-4
0.544, -3.968e-4
0.543, -3.873e-4
0.542, -3.902e-4
0.541, -4.000e-4
0.540, -4.046e-4
0.539, -3.979e-4
0.538, -3.904e-4
0.537, -3.967e-4
0.536, -4.073e-4
0.535, -4.070e-4
0.534, -3.966e-4
0.533, -3.936e-4
0.532, -4.020e-4
0.531, -4.104e-4
0.530, -4.067e-4
0.529, -3.955e-4
0.528, -3.979e-4
0.527, -4.081e-4
0.526, -4.118e-4
0.525, -4.066e-4
0.524, -3.974e-4
0.523, -4.024e-4
0.522, -4.127e-4
0.521, -4.135e-4
0.520, -4.034e-4
0.519, -3.992e-4
0.518, -4.082e-4
0.517, -4.171e-4
0.516, -4.138e-4
0.515, -4.016e-4
0.514, -4.027e-4
0.513, -4.127e-4
0.512, -4.178e-4
0.511, -4.118e-4
0.510, -4.015e-4
0.509, -4.074e-4
0.508, -4.187e-4
0.507, -4.182e-4
0.506, -4.084e-4
0.505, -4.048e-4
0.504, -4.133e-4
0.503, -4.212e-4
0.502, -4.160e-4
0.501, -4.058e-4
0.500, -4.088e-4
0.499, -4.174e-4
0.498, -4.217e-4
0.497, -4.131e-4
0.496, -4.059e-4
0.495, -4.148e-4
0.494, -4.238e-4
0.493, -4.207e-4
0.492, -4.096e-4
0.491, -4.104e-4
0.490, -4.196e-4
0.489, -4.246e-4
0.488, -4.187e-4
0.487, -4.099e-4
0.486, -4.151e-4
0.485, -4.251e-4
0.484, -4.258e-4
0.483, -4.146e-4
0.482, -4.120e-4
0.481, -4.210e-4
0.480, -4.274e-4
0.479, -4.233e-4
0.478, -4.119e-4
0.477, -4.164e-4
0.476, -4.269e-4
0.475, -4.290e-4
0.474, -4.202e-4
0.473, -4.143e-4
0.472, -4.222e-4
0.471, -4.312e-4
0.470, -3.309e-4
0.471, -7.437e-5
0.472, 7.367e-5
0.473, 1.555e-4
0.474, 2.133e-4
0.475, 2.644e-4
0.476, 3.016e-4
0.477, 3.171e-4
0.478, 3.233e-4
0.479, 3.415e-4
0.480, 3.616e-4
0.481, 3.714e-4
0.482, 3.679e-4
0.483, 3.682e-4
0.484, 3.834e-4
0.485, 3.955e-4
0.486, 3.950e-4
0.487, 3.867e-4
0.488, 3.921e-4
0.489, 4.051e-4
0.490, 4.093e-4
0.491, 4.020e-4
0.492, 3.976e-4
0.493, 4.088e-4
0.494, 4.186e-4
0.495, 4.164e-4
0.496, 4.045e-4
0.497, 4.109e-4
0.498, 4.226e-4
0.499, 4.250e-4
0.500, 4.169e-4
0.501, 4.110e-4
0.502, 4.222e-4
0.503, 4.306e-4
0.504, 4.271e-4
0.505, 4.150e-4
0.506, 4.207e-4
0.507, 4.323e-4
0.508, 4.343e-4
0.509, 4.233e-4
0.510, 4.204e-4
0.511, 4.318e-4
0.512, 4.387e-4
0.513, 4.323e-4
0.514, 4.210e-4
0.515, 4.290e-4
0.516, 4.399e-4
0.517, 4.390e-4
0.518, 4.272e-4
0.519, 4.274e-4
0.520, 4.395e-4
0.521, 4.438e-4
0.522, 4.355e-4
0.523, 4.263e-4
0.524, 4.363e-4
0.525, 4.458e-4
0.526, 4.420e-4
0.527, 4.290e-4
0.528, 4.332e-4
0.529, 4.462e-4
0.530, 4.463e-4
0.531, 4.338e-4
0.532, 4.323e-4
0.533, 4.440e-4
0.534, 4.497e-4
0.535, 4.410e-4
0.536, 4.317e-4
0.537, 4.428e-4
0.538, 4.523e-4
0.539, 4.468e-4
0.540, 4.341e-4
0.541, 4.403e-4
0.542, 4.528e-4
0.543, 4.514e-4
0.544, 4.369e-4
0.545, 4.390e-4
0.546, 4.523e-4
0.547, 4.551e-4
0.548, 4.442e-4
0.549, 4.375e-4
0.550, 4.486e-4
0.551, 4.562e-4
0.552, 4.490e-4
0.553, 4.378e-4
0.554, 4.458e-4
0.555, 4.557e-4
0.556, 4.552e-4
0.557, 4.437e-4
0.558, 4.433e-4
0.559, 4.544e-4
0.560, 4.581e-4
0.561, 4.496e-4
0.562, 4.414e-4
0.563, 4.531e-4
0.564, 4.630e-4
0.565, 4.587e-4
0.566, 4.453e-4
0.567, 4.485e-4
0.568, 4.597e-4
0.569, 4.619e-4
0.570, 3.530e-4
0.569, 9.735e-5
0.568, -4.900e-5
0.567, -1.372e-4
0.566, -2.067e-4
0.565, -2.608e-4
0.564, -2.899e-4
0.563, -3.020e-4
0.562, -3.161e-4
0.561, -3.361e-4
0.560, -3.523e-4
0.559, -3.544e-4
0.558, -3.483e-4
0.557, -3.570e-4
0.556, -3.708e-4
0.555, -3.765e-4
0.554, -3.708e-4
0.553, -3.642e-4
0.552, -3.750e-4
0.551, -3.864e-4
0.550, -3.842e-4
0.549, -3.752e-4
0.548, -3.759e-4
0.547, -3.866e-4
0.546, -3.946e-4
0.545, -3.895e-4
0.544, -3.792e-4
0.543, -3.842e-4
0.542, -3.938e-4
0.541, -3.976e-4
0.540, -3.898e-4
0.539, -3.815e-4
0.538, -3.892e-4
0.537, -4.011e-4
0.536, -3.990e-4
0.535, -3.879e-4
0.534, -3.876e-4
0.533, -3.980e-4
0.532, -4.040e-4
0.531, -3.980e-4
0.530, -3.873e-4
0.529, -3.921e-4
0.528, -4.034e-4
0.527, -4.051e-4
0.526, -3.949e-4
0.525, -3.884e-4
0.524, -3.976e-4
0.523, -4.063e-4
0.522, -4.056e-4
0.521, -3.940e-4
0.520, -3.934e-4
0.519, -4.039e-4
0.518, -4.088e-4
0.517, -4.026e-4
0.516, -3.928e-4
0.515, -3.984e-4
0.514, -4.092e-4
0.513, -4.085e-4
0.512, -3.991e-4
0.511, -3.956e-4
0.510, -4.041e-4
0.509, -4.122e-4
0.508, -4.085e-4
0.507, -3.969e-4
0.506, -3.996e-4
0.505, -4.098e-4
0.504, -4.122e-4
0.503, -4.042e-4
0.502, -3.960e-4
0.501, -4.041e-4
0.500, -4.143e-4
0.499, -4.115e-4
0.498, -4.009e-4
0.497, -4.007e-4
0.496, -4.102e-4
0.495, -4.154e-4
0.494, -4.093e-4
0.493, -3.998e-4
0.492, -4.058e-4
0.491, -4.155e-4
0.490, -4.154e-4
0.489, -4.045e-4
0.488, -4.024e-4
0.487, -4.127e-4
0.486, -4.189e-4
0.485, -4.124e-4
0.484, -4.022e-4
0.483, -4.065e-4
0.482, -4.172e-4
0.481, -4.185e-4
0.480, -4.094e-4
0.479, -4.048e-4
0.478, -4.118e-4
0.477, -4.200e-4
0.476, -4.180e-4
0.475, -4.070e-4
0.474, -4.077e-4
0.473, -4.163e-4
0.472, -4.220e-4
0.471, -4.173e-4
0.470, -3.106e-4
0.471, -6.990e-5
0.472, 6.820e-5
0.473, 1.611e-4
0.474, 2.306e-4
0.475, 2.766e-4
0.476, 2.998e-4
0.477, 3.111e-4
0.478, 3.332e-4
0.479, 3.560e-4
0.480, 3.665e-4
0.481, 3.650e-4
0.482, 3.655e-4
0.483, 3.798e-4
0.484, 3.924e-4
0.485, 3.936e-4
0.486, 3.873e-4
0.487, 3.897e-4
0.488, 4.005e-4
0.489, 4.099e-4
0.490, 4.064e-4
0.491, 3.976e-4
0.492, 4.040e-4
0.493, 4.148e-4
0.494, 4.188e-4
0.495, 4.120e-4
0.496, 4.049e-4
0.497, 4.142e-4
0.498, 4.232e-4
0.499, 4.240e-4
0.500, 4.155e-4
0.501, 4.122e-4
0.502, 4.217e-4
0.503, 4.305e-4
0.504, 4.268e-4
0.505, 4.169e-4
0.506, 4.186e-4
0.507, 4.276e-4
0.508, 4.331e-4
0.509, 4.284e-4
0.510, 4.198e-4
0.511, 4.236e-4
0.512, 4.332e-4
0.513, 4.369e-4
0.514, 4.307e-4
0.515, 4.220e-4
0.516, 4.288e-4
0.517, 4.378e-4
0.518, 4.394e-4
0.519, 4.318e-4
0.520, 4.252e-4
0.521, 4.332e-4
0.522, 4.418e-4
0.523, 4.402e-4
0.524, 4.300e-4
0.525, 4.285e-4
0.526, 4.374e-4
0.527, 4.448e-4
0.528, 4.402e-4
0.529, 4.290e-4
0.530, 4.324e-4
0.531, 4.428e-4
0.532, 4.472e-4
0.533, 4.390e-4
0.534, 4.307e-4
0.535, 4.374e-4
0.536, 4.469e-4
0.537, 4.467e-4
0.538, 4.363e-4
0.539, 4.323e-4
0.540, 4.426e-4
0.541, 4.498e-4
0.542, 4.464e-4
0.543, 4.350e-4
0.544, 4.372e-4
0.545, 4.480e-4
0.546, 4.518e-4
0.547, 4.431e-4
0.548, 4.350e-4
0.549, 4.427e-4
0.550, 4.520e-4
0.551, 4.513e-4
0.552, 4.398e-4
0.553, 4.387e-4
0.554, 4.482e-4
0.555, 4.532e-4
0.556, 4.492e-4
0.557, 4.377e-4
0.558, 4.438e-4
0.559, 4.541e-4
0.560, 4.552e-4
0.561, 4.464e-4
0.562, 4.399e-4
0.563, 4.497e-4
0.564, 4.584e-4
0.565, 4.565e-4
0.566, 4.452e-4
0.567, 4.440e-4
0.568, 4.532e-4
0.569, 4.599e-4
0.570, 3.570e-4
0.569, 9.584e-5
0.568, -5.712e-5
0.567, -1.445e-4
0.566, -2.028e-4
0.565, -2.530e-4
0.564, -2.919e-4
0.563, -3.120e-4
0.562, -3.170e-4
0.561, -3.268e-4
0.560, -3.441e-4
0.559, -3.581e-4
0.558, -3.590e-4
0.557, -3.532e-4
0.556, -3.591e-4
0.555, -3.710e-4
0.554, -3.781e-4
0.553, -3.720e-4
0.552, -3.655e-4
0.551, -3.746e-4
0.550, -3.855e-4
0.549, -3.846e-4
0.548, -3.744e-4
0.547, -3.741e-4
0.546, -3.855e-4
0.545, -3.925e-4
0.544, -3.853e-4
0.543, -3.768e-4
0.542, -3.839e-4
0.541, -3.949e-4
0.540, -3.939e-4
0.539, -3.821e-4
0.538, -3.822e-4
0.537, -3.941e-4
0.536, -3.985e-4
0.535, -3.902e-4
0.534, -3.816e-4
0.533, -3.904e-4
0.532, -4.012e-4
0.531, -3.972e-4
0.530, -3.855e-4
0.529, -3.879e-4
0.528, -3.994e-4
0.527, -4.021e-4
0.526, -3.908e-4
0.525, -3.861e-4
0.524, -3.977e-4
0.523, -4.038e-4
0.522, -3.980e-4
0.521, -3.876e-4
0.520, -3.938e-4
0.519, -4.058e-4
0.518, -4.031e-4
0.517, -3.911e-4
0.516, -3.925e-4
0.515, -4.031e-4
0.514, -4.065e-4
0.513, -3.967e-4
0.512, -3.907e-4
0.511, -4.012e-4
0.510, -4.081e-4
0.509, -4.026e-4
0.508, -3.909e-4
0.507, -3.981e-4
0.506, -4.108e-4
0.505, -4.069e-4
0.504, -3.934e-4
0.503, -3.968e-4
0.502, -4.086e-4
0.501, -4.087e-4
0.500, -3.977e-4
0.499, -3.937e-4
0.498, -4.068e-4
0.497, -4.123e-4
0.496, -4.030e-4
0.495, -3.954e-4
0.494, -4.048e-4
0.493, -4.144e-4
0.492, -4.073e-4
0.491, -3.956e-4
0.490, -4.025e-4
0.489, -4.144e-4
0.488, -4.114e-4
0.487, -3.994e-4
0.486, -3.989e-4
0.485, -4.134e-4
0.484, -4.167e-4
0.483, -4.036e-4
0.482, -3.998e-4
0.481, -4.119e-4
0.480, -4.178e-4
0.479, -4.083e-4
0.478, -3.988e-4
0.477, -4.098e-4
0.476, -4.203e-4
0.475, -4.122e-4
0.474, -4.006e-4
0.473, -4.085e-4
0.472, -4.198e-4
0.471, -4.160e-4
0.470, -3.075e-4
0.471, -6.583e-5
0.472, 6.886e-5
0.473, 1.618e-4
0.474, 2.349e-4
0.475, 2.774e-4
0.476, 2.945e-4
0.477, 3.126e-4
0.478, 3.410e-4
0.479, 3.599e-4
0.480, 3.569e-4
0.481, 3.591e-4
0.482, 3.758e-4
0.483, 3.904e-4
0.484, 3.869e-4
0.485, 3.808e-4
0.486, 3.914e-4
0.487, 4.041e-4
0.488, 4.007e-4
0.489, 3.920e-4
0.490, 3.995e-4
0.491, 4.132e-4
0.492, 4.140e-4
0.493, 4.012e-4
0.494, 4.043e-4
0.495, 4.191e-4
0.496, 4.206e-4
0.497, 4.089e-4
0.498, 4.077e-4
0.499, 4.210e-4
0.500, 4.268e-4
0.501, 4.154e-4
0.502, 4.121e-4
0.503, 4.248e-4
0.504, 4.316e-4
0.505, 4.204e-4
0.506, 4.145e-4
0.507, 4.255e-4
0.508, 4.351e-4
0.509, 4.230e-4
0.510, 4.156e-4
0.511, 4.274e-4
0.512, 4.364e-4
0.513, 4.275e-4
0.514, 4.188e-4
0.515, 4.288e-4
0.516, 4.386e-4
0.517, 4.289e-4
0.518, 4.199e-4
0.519, 4.311e-4
0.520, 4.411e-4
0.521, 4.309e-4
0.522, 4.216e-4
0.523, 4.326e-4
0.524, 4.454e-4
0.525, 4.342e-4
0.526, 4.238e-4
0.527, 4.357e-4
0.528, 4.458e-4
0.529, 4.370e-4
0.530, 4.246e-4
0.531, 4.355e-4
0.532, 4.479e-4
0.533, 4.398e-4
0.534, 4.269e-4
0.535, 4.372e-4
0.536, 4.478e-4
0.537, 4.416e-4
0.538, 4.285e-4
0.539, 4.375e-4
0.540, 4.495e-4
0.541, 4.459e-4
0.542, 4.330e-4
0.543, 4.360e-4
0.544, 4.491e-4
0.545, 4.493e-4
0.546, 4.349e-4
0.547, 4.345e-4
0.548, 4.478e-4
0.549, 4.501e-4
0.550, 4.388e-4
0.551, 4.342e-4
0.552, 4.454e-4
0.553, 4.534e-4
0.554, 4.442e-4
0.555, 4.351e-4
0.556, 4.430e-4
0.557, 4.546e-4
0.558, 4.488e-4
0.559, 4.350e-4
0.560, 4.403e-4
0.561, 4.529e-4
0.562, 4.532e-4
0.563, 4.414e-4
0.564, 4.400e-4
0.565, 4.515e-4
0.566, 4.563e-4
0.567, 4.473e-4
0.568, 4.381e-4
0.569, 4.485e-4
0.570, 3.597e-4
0.569, 1.054e-4
0.568, -6.020e-5
0.567, -1.527e-4
0.566, -2.027e-4
0.565, -2.471e-4
0.564, -2.883e-4
0.563, -3.135e-4
0.562, -3.203e-4
0.561, -3.249e-4
0.560, -3.424e-4
0.559, -3.576e-4
0.558, -3.587e-4
0.557, -3.516e-4
0.556, -3.582e-4
0.555, -3.712e-4
0.554, -3.765e-4
0.553, -3.669e-4
0.552, -3.633e-4
0.551, -3.770e-4
0.550, -3.852e-4
0.549, -3.809e-4
0.548, -3.699e-4
0.547, -3.769e-4
0.546, -3.886e-4
0.545, -3.889e-4
0.544, -3.781e-4
0.543, -3.761e-4
0.542, -3.868e-4
0.541, -3.947e-4
0.540, -3.883e-4
0.539, -3.777e-4
0.538, -3.837e-4
0.537, -3.959e-4
0.536, -3.954e-4
0.535, -3.844e-4
0.534, -3.821e-4
0.533, -3.928e-4
0.532, -3.993e-4
0.531, -3.911e-4
0.530, -3.825e-4
0.529, -3.894e-4
0.528, -3.995e-4
0.527, -3.983e-4
0.526, -3.873e-4
0.525, -3.873e-4
0.524, -3.971e-4
0.523, -4.013e-4
0.522, -3.943e-4
0.521, -3.857e-4
0.520, -3.932e-4
0.519, -4.043e-4
0.518, -4.001e-4
0.517, -3.879e-4
0.516, -3.906e-4
0.515, -4.020e-4
0.514, -4.040e-4
0.513, -3.947e-4
0.512, -3.890e-4
0.511, -3.991e-4
0.510, -4.059e-4
0.509, -4.016e-4
0.508, -3.904e-4
0.507, -3.945e-4
0.506, -4.057e-4
0.505, -4.066e-4
0.504, -3.948e-4
0.503, -3.926e-4
0.502, -4.039e-4
0.501, -4.086e-4
0.500, -4.004e-4
0.499, -3.913e-4
0.498, -3.995e-4
0.497, -4.094e-4
0.496, -4.059e-4
0.495, -3.943e-4
0.494, -3.963e-4
0.493, -4.090e-4
0.492, -4.102e-4
0.491, -3.976e-4
0.490, -3.956e-4
0.489, -4.074e-4
0.488, -4.123e-4
0.487, -4.037e-4
0.486, -3.952e-4
0.485, -4.053e-4
0.484, -4.140e-4
0.483, -4.065e-4
0.482, -3.960e-4
0.481, -4.029e-4
0.480, -4.143e-4
0.479, -4.113e-4
0.478, -3.979e-4
0.477, -4.017e-4
0.476, -4.145e-4
0.475, -4.145e-4
0.474, -4.032e-4
0.473, -3.994e-4
0.472, -4.114e-4
0.471, -4.166e-4
0.470, -3.107e-4
0.471, -5.983e-5
0.472, 7.897e-5
0.473, 1.621e-4
0.474, 2.307e-4
0.475, 2.814e-4
0.476, 3.047e-4
0.477, 3.131e-4
0.478, 3.344e-4
0.479, 3.583e-4
0.480, 3.666e-4
0.481, 3.620e-4
0.482, 3.695e-4
0.483, 3.877e-4
0.484, 3.935e-4
0.485, 3.845e-4
0.486, 3.844e-4
0.487, 3.999e-4
0.488, 4.074e-4
0.489, 3.998e-4
0.490, 3.948e-4
0.491, 4.064e-4
0.492, 4.177e-4
0.493, 4.127e-4
0.494, 4.026e-4
0.495, 4.095e-4
0.496, 4.213e-4
0.497, 4.214e-4
0.498, 4.091e-4
0.499, 4.109e-4
0.500, 4.244e-4
0.501, 4.270e-4
0.502, 4.149e-4
0.503, 4.110e-4
0.504, 4.251e-4
0.505, 4.310e-4
0.506, 4.228e-4
0.507, 4.136e-4
0.508, 4.245e-4
0.509, 4.340e-4
0.510, 4.298e-4
0.511, 4.164e-4
0.512, 4.225e-4
0.513, 4.356e-4
0.514, 4.353e-4
0.515, 4.211e-4
0.516, 4.221e-4
0.517, 4.345e-4
0.518, 4.389e-4
0.519, 4.287e-4
0.520, 4.222e-4
0.521, 4.348e-4
0.522, 4.409e-4
0.523, 4.343e-4
0.524, 4.243e-4
0.525, 4.313e-4
0.526, 4.435e-4
0.527, 4.396e-4
0.528, 4.254e-4
0.529, 4.289e-4
0.530, 4.432e-4
0.531, 4.436e-4
0.532, 4.303e-4
0.533, 4.282e-4
0.534, 4.412e-4
0.535, 4.459e-4
0.536, 4.342e-4
0.537, 4.277e-4
0.538, 4.411e-4
0.539, 4.480e-4
0.540, 4.378e-4
0.541, 4.274e-4
0.542, 4.389e-4
0.543, 4.493e-4
0.544, 4.414e-4
0.545, 4.309e-4
0.546, 4.375e-4
0.547, 4.485e-4
0.548, 4.452e-4
0.549, 4.324e-4
0.550, 4.360e-4
0.551, 4.486e-4
0.552, 4.494e-4
0.553, 4.369e-4
0.554, 4.358e-4
0.555, 4.466e-4
0.556, 4.529e-4
0.557, 4.410e-4
0.558, 4.326e-4
0.559, 4.444e-4
0.560, 4.544e-4
0.561, 4.476e-4
0.562, 4.355e-4
0.563, 4.433e-4
0.564, 4.550e-4
0.565, 4.510e-4
0.566, 4.380e-4
0.567, 4.407e-4
0.568, 4.544e-4
0.569, 4.548e-4
0.570, 3.432e-4
0.569, 9.281e-5
0.568, -4.746e-5
0.567, -1.393e-4
0.566, -2.132e-4
0.565, -2.626e-4
0.564, -2.822e-4
0.563, -2.972e-4
0.562, -3.218e-4
0.561, -3.421e-4
0.560, -3.424e-4
0.559, -3.397e-4
0.558, -3.515e-4
0.557, -3.676e-4
0.556, -3.674e-4
0.555, -3.572e-4
0.554, -3.631e-4
0.553, -3.773e-4
0.552, -3.787e-4
0.551, -3.694e-4
0.550, -3.696e-4
0.549, -3.830e-4
0.548, -3.880e-4
0.547, -3.752e-4
0.546, -3.715e-4
0.545, -3.848e-4
0.544, -3.932e-4
0.543, -3.823e-4
0.542, -3.742e-4
0.541, -3.864e-4
0.540, -3.960e-4
0.539, -3.875e-4
0.538, -3.782e-4
0.537, -3.837e-4
0.536, -3.969e-4
0.535, -3.941e-4
0.534, -3.816e-4
0.533, -3.840e-4
0.532, -3.969e-4
0.531, -3.976e-4
0.530, -3.867e-4
0.529, -3.832e-4
0.528, -3.953e-4
0.527, -4.024e-4
0.526, -3.903e-4
0.525, -3.834e-4
0.524, -3.939e-4
0.523, -4.025e-4
0.522, -3.963e-4
0.521, -3.860e-4
0.520, -3.927e-4
0.519, -4.044e-4
0.518, -3.982e-4
0.517, -3.873e-4
0.516, -3.908e-4
0.515, -4.031e-4
0.514, -4.027e-4
0.513, -3.897e-4
0.512, -3.897e-4
0.511, -4.034e-4
0.510, -4.052e-4
0.509, -3.929e-4
0.508, -3.899e-4
0.507, -4.007e-4
0.506, -4.080e-4
0.505, -3.971e-4
0.504, -3.887e-4
0.503, -3.992e-4
0.502, -4.082e-4
0.501, -4.002e-4
0.500, -3.908e-4
0.499, -3.966e-4
0.498, -4.075e-4
0.497, -4.057e-4
0.496, -3.929e-4
0.495, -3.954e-4
0.494, -4.075e-4
0.493, -4.095e-4
0.492, -3.978e-4
0.491, -3.929e-4
0.490, -4.045e-4
0.489, -4.114e-4
0.488, -4.036e-4
0.487, -3.936e-4
0.486, -4.006e-4
0.485, -4.114e-4
0.484, -4.085e-4
0.483, -3.974e-4
0.482, -3.980e-4
0.481, -4.081e-4
0.480, -4.122e-4
0.479, -4.037e-4
0.478, -3.970e-4
0.477, -4.056e-4
0.476, -4.147e-4
0.475, -4.098e-4
0.474, -3.980e-4
0.473, -4.023e-4
0.472, -4.116e-4
0.471, -4.141e-4
