Nov. 23, 2024   18:42:18
Cyclic Voltammetry
File: d:\yx\20241123\6-3\cv-40.bin
Data Source:  Experiment
Instrument Model:  CHI660E
Header: 
Note: 

Init E (V) = 0.47
High E (V) = 0.57
Low E (V) = 0.47
Init P/N = P
Scan Rate (V/s) = 0.04
Segment = 10
Sample Interval (V) = 0.001
Quiet Time (sec) = 2
Sensitivity (A/V) = 0.001

Results:

Channel 1:
Segment 1:

Segment 2:

Segment 3:

Segment 4:

Segment 5:

Segment 6:

Segment 7:

Segment 8:

Segment 9:

Segment 10:

Potential/V, Current/A

0.470, 3.269e-5
0.471, 1.705e-4
0.472, 2.974e-4
0.473, 3.954e-4
0.474, 4.724e-4
0.475, 5.332e-4
0.476, 5.778e-4
0.477, 6.117e-4
0.478, 6.369e-4
0.479, 6.524e-4
0.480, 6.678e-4
0.481, 6.896e-4
0.482, 7.093e-4
0.483, 7.267e-4
0.484, 7.426e-4
0.485, 7.525e-4
0.486, 7.598e-4
0.487, 7.624e-4
0.488, 7.615e-4
0.489, 7.630e-4
0.490, 7.704e-4
0.491, 7.801e-4
0.492, 7.885e-4
0.493, 7.969e-4
0.494, 8.022e-4
0.495, 8.040e-4
0.496, 8.034e-4
0.497, 7.988e-4
0.498, 7.946e-4
0.499, 7.996e-4
0.500, 8.078e-4
0.501, 8.139e-4
0.502, 8.212e-4
0.503, 8.249e-4
0.504, 8.263e-4
0.505, 8.262e-4
0.506, 8.214e-4
0.507, 8.147e-4
0.508, 8.138e-4
0.509, 8.206e-4
0.510, 8.280e-4
0.511, 8.346e-4
0.512, 8.394e-4
0.513, 8.413e-4
0.514, 8.394e-4
0.515, 8.342e-4
0.516, 8.257e-4
0.517, 8.239e-4
0.518, 8.318e-4
0.519, 8.385e-4
0.520, 8.431e-4
0.521, 8.469e-4
0.522, 8.481e-4
0.523, 8.501e-4
0.524, 8.481e-4
0.525, 8.405e-4
0.526, 8.354e-4
0.527, 8.369e-4
0.528, 8.427e-4
0.529, 8.484e-4
0.530, 8.547e-4
0.531, 8.579e-4
0.532, 8.579e-4
0.533, 8.542e-4
0.534, 8.474e-4
0.535, 8.401e-4
0.536, 8.415e-4
0.537, 8.488e-4
0.538, 8.543e-4
0.539, 8.601e-4
0.540, 8.630e-4
0.541, 8.631e-4
0.542, 8.613e-4
0.543, 8.556e-4
0.544, 8.486e-4
0.545, 8.475e-4
0.546, 8.522e-4
0.547, 8.575e-4
0.548, 8.626e-4
0.549, 8.656e-4
0.550, 8.680e-4
0.551, 8.669e-4
0.552, 8.619e-4
0.553, 8.533e-4
0.554, 8.500e-4
0.555, 8.558e-4
0.556, 8.617e-4
0.557, 8.664e-4
0.558, 8.711e-4
0.559, 8.721e-4
0.560, 8.728e-4
0.561, 8.707e-4
0.562, 8.624e-4
0.563, 8.576e-4
0.564, 8.613e-4
0.565, 8.672e-4
0.566, 8.720e-4
0.567, 8.762e-4
0.568, 8.770e-4
0.569, 8.775e-4
0.570, 8.129e-4
0.569, 5.191e-4
0.568, 2.546e-4
0.567, 5.934e-5
0.566, -8.706e-5
0.565, -2.006e-4
0.564, -2.865e-4
0.563, -3.581e-4
0.562, -4.213e-4
0.561, -4.742e-4
0.560, -5.200e-4
0.559, -5.601e-4
0.558, -5.903e-4
0.557, -6.142e-4
0.556, -6.320e-4
0.555, -6.421e-4
0.554, -6.520e-4
0.553, -6.656e-4
0.552, -6.809e-4
0.551, -6.956e-4
0.550, -7.091e-4
0.549, -7.204e-4
0.548, -7.276e-4
0.547, -7.319e-4
0.546, -7.306e-4
0.545, -7.274e-4
0.544, -7.314e-4
0.543, -7.400e-4
0.542, -7.482e-4
0.541, -7.568e-4
0.540, -7.624e-4
0.539, -7.658e-4
0.538, -7.661e-4
0.537, -7.622e-4
0.536, -7.563e-4
0.535, -7.570e-4
0.534, -7.624e-4
0.533, -7.692e-4
0.532, -7.754e-4
0.531, -7.799e-4
0.530, -7.812e-4
0.529, -7.808e-4
0.528, -7.787e-4
0.527, -7.715e-4
0.526, -7.682e-4
0.525, -7.723e-4
0.524, -7.775e-4
0.523, -7.839e-4
0.522, -7.903e-4
0.521, -7.922e-4
0.520, -7.911e-4
0.519, -7.874e-4
0.518, -7.786e-4
0.517, -7.750e-4
0.516, -7.791e-4
0.515, -7.853e-4
0.514, -7.913e-4
0.513, -7.960e-4
0.512, -7.987e-4
0.511, -7.993e-4
0.510, -7.960e-4
0.509, -7.885e-4
0.508, -7.825e-4
0.507, -7.843e-4
0.506, -7.897e-4
0.505, -7.939e-4
0.504, -7.985e-4
0.503, -8.016e-4
0.502, -8.020e-4
0.501, -8.009e-4
0.500, -7.955e-4
0.499, -7.884e-4
0.498, -7.879e-4
0.497, -7.909e-4
0.496, -7.955e-4
0.495, -8.008e-4
0.494, -8.034e-4
0.493, -8.053e-4
0.492, -8.050e-4
0.491, -8.020e-4
0.490, -7.940e-4
0.489, -7.897e-4
0.488, -7.922e-4
0.487, -7.969e-4
0.486, -8.025e-4
0.485, -8.085e-4
0.484, -8.105e-4
0.483, -8.098e-4
0.482, -8.064e-4
0.481, -7.968e-4
0.480, -7.919e-4
0.479, -7.955e-4
0.478, -8.008e-4
0.477, -8.055e-4
0.476, -8.100e-4
0.475, -8.120e-4
0.474, -8.128e-4
0.473, -8.110e-4
0.472, -8.053e-4
0.471, -7.981e-4
0.470, -7.347e-4
0.471, -4.556e-4
0.472, -2.086e-4
0.473, -2.707e-5
0.474, 1.118e-4
0.475, 2.255e-4
0.476, 3.185e-4
0.477, 3.942e-4
0.478, 4.588e-4
0.479, 5.084e-4
0.480, 5.470e-4
0.481, 5.772e-4
0.482, 5.980e-4
0.483, 6.148e-4
0.484, 6.352e-4
0.485, 6.575e-4
0.486, 6.770e-4
0.487, 6.954e-4
0.488, 7.102e-4
0.489, 7.200e-4
0.490, 7.267e-4
0.491, 7.302e-4
0.492, 7.300e-4
0.493, 7.344e-4
0.494, 7.462e-4
0.495, 7.562e-4
0.496, 7.657e-4
0.497, 7.735e-4
0.498, 7.787e-4
0.499, 7.825e-4
0.500, 7.812e-4
0.501, 7.755e-4
0.502, 7.744e-4
0.503, 7.806e-4
0.504, 7.894e-4
0.505, 7.976e-4
0.506, 8.058e-4
0.507, 8.100e-4
0.508, 8.109e-4
0.509, 8.084e-4
0.510, 8.020e-4
0.511, 7.971e-4
0.512, 8.021e-4
0.513, 8.104e-4
0.514, 8.155e-4
0.515, 8.218e-4
0.516, 8.250e-4
0.517, 8.261e-4
0.518, 8.263e-4
0.519, 8.216e-4
0.520, 8.141e-4
0.521, 8.141e-4
0.522, 8.202e-4
0.523, 8.262e-4
0.524, 8.324e-4
0.525, 8.369e-4
0.526, 8.390e-4
0.527, 8.381e-4
0.528, 8.337e-4
0.529, 8.259e-4
0.530, 8.230e-4
0.531, 8.285e-4
0.532, 8.350e-4
0.533, 8.398e-4
0.534, 8.448e-4
0.535, 8.459e-4
0.536, 8.462e-4
0.537, 8.437e-4
0.538, 8.371e-4
0.539, 8.324e-4
0.540, 8.354e-4
0.541, 8.410e-4
0.542, 8.464e-4
0.543, 8.522e-4
0.544, 8.543e-4
0.545, 8.537e-4
0.546, 8.511e-4
0.547, 8.452e-4
0.548, 8.394e-4
0.549, 8.397e-4
0.550, 8.459e-4
0.551, 8.507e-4
0.552, 8.562e-4
0.553, 8.599e-4
0.554, 8.606e-4
0.555, 8.589e-4
0.556, 8.528e-4
0.557, 8.444e-4
0.558, 8.431e-4
0.559, 8.491e-4
0.560, 8.548e-4
0.561, 8.610e-4
0.562, 8.643e-4
0.563, 8.669e-4
0.564, 8.678e-4
0.565, 8.630e-4
0.566, 8.544e-4
0.567, 8.498e-4
0.568, 8.551e-4
0.569, 8.624e-4
0.570, 8.037e-4
0.569, 5.203e-4
0.568, 2.641e-4
0.567, 6.849e-5
0.566, -8.405e-5
0.565, -2.077e-4
0.564, -3.055e-4
0.563, -3.821e-4
0.562, -4.408e-4
0.561, -4.851e-4
0.560, -5.193e-4
0.559, -5.503e-4
0.558, -5.800e-4
0.557, -6.089e-4
0.556, -6.346e-4
0.555, -6.564e-4
0.554, -6.722e-4
0.553, -6.837e-4
0.552, -6.926e-4
0.551, -6.958e-4
0.550, -6.989e-4
0.549, -7.079e-4
0.548, -7.189e-4
0.547, -7.277e-4
0.546, -7.376e-4
0.545, -7.457e-4
0.544, -7.514e-4
0.543, -7.538e-4
0.542, -7.500e-4
0.541, -7.448e-4
0.540, -7.453e-4
0.539, -7.523e-4
0.538, -7.602e-4
0.537, -7.675e-4
0.536, -7.742e-4
0.535, -7.771e-4
0.534, -7.759e-4
0.533, -7.723e-4
0.532, -7.649e-4
0.531, -7.630e-4
0.530, -7.684e-4
0.529, -7.742e-4
0.528, -7.799e-4
0.527, -7.849e-4
0.526, -7.859e-4
0.525, -7.865e-4
0.524, -7.852e-4
0.523, -7.792e-4
0.522, -7.744e-4
0.521, -7.756e-4
0.520, -7.799e-4
0.519, -7.845e-4
0.518, -7.896e-4
0.517, -7.941e-4
0.516, -7.954e-4
0.515, -7.944e-4
0.514, -7.895e-4
0.513, -7.816e-4
0.512, -7.799e-4
0.511, -7.841e-4
0.510, -7.897e-4
0.509, -7.964e-4
0.508, -8.001e-4
0.507, -8.011e-4
0.506, -8.007e-4
0.505, -7.956e-4
0.504, -7.875e-4
0.503, -7.839e-4
0.502, -7.868e-4
0.501, -7.936e-4
0.500, -8.002e-4
0.499, -8.048e-4
0.498, -8.054e-4
0.497, -8.031e-4
0.496, -7.992e-4
0.495, -7.906e-4
0.494, -7.872e-4
0.493, -7.914e-4
0.492, -7.969e-4
0.491, -8.031e-4
0.490, -8.091e-4
0.489, -8.098e-4
0.488, -8.074e-4
0.487, -8.029e-4
0.486, -7.944e-4
0.485, -7.920e-4
0.484, -7.949e-4
0.483, -7.995e-4
0.482, -8.046e-4
0.481, -8.089e-4
0.480, -8.112e-4
0.479, -8.109e-4
0.478, -8.067e-4
0.477, -7.992e-4
0.476, -7.950e-4
0.475, -7.971e-4
0.474, -8.020e-4
0.473, -8.078e-4
0.472, -8.122e-4
0.471, -8.129e-4
0.470, -7.496e-4
0.471, -4.637e-4
0.472, -2.050e-4
0.473, -1.401e-5
0.474, 1.278e-4
0.475, 2.363e-4
0.476, 3.189e-4
0.477, 3.829e-4
0.478, 4.413e-4
0.479, 4.940e-4
0.480, 5.390e-4
0.481, 5.785e-4
0.482, 6.079e-4
0.483, 6.312e-4
0.484, 6.479e-4
0.485, 6.573e-4
0.486, 6.666e-4
0.487, 6.814e-4
0.488, 6.990e-4
0.489, 7.139e-4
0.490, 7.274e-4
0.491, 7.367e-4
0.492, 7.439e-4
0.493, 7.473e-4
0.494, 7.473e-4
0.495, 7.464e-4
0.496, 7.524e-4
0.497, 7.623e-4
0.498, 7.708e-4
0.499, 7.812e-4
0.500, 7.869e-4
0.501, 7.896e-4
0.502, 7.900e-4
0.503, 7.853e-4
0.504, 7.800e-4
0.505, 7.837e-4
0.506, 7.930e-4
0.507, 8.012e-4
0.508, 8.086e-4
0.509, 8.122e-4
0.510, 8.151e-4
0.511, 8.136e-4
0.512, 8.064e-4
0.513, 8.001e-4
0.514, 8.024e-4
0.515, 8.115e-4
0.516, 8.186e-4
0.517, 8.248e-4
0.518, 8.278e-4
0.519, 8.291e-4
0.520, 8.272e-4
0.521, 8.204e-4
0.522, 8.131e-4
0.523, 8.157e-4
0.524, 8.235e-4
0.525, 8.297e-4
0.526, 8.365e-4
0.527, 8.389e-4
0.528, 8.389e-4
0.529, 8.355e-4
0.530, 8.268e-4
0.531, 8.224e-4
0.532, 8.270e-4
0.533, 8.331e-4
0.534, 8.390e-4
0.535, 8.453e-4
0.536, 8.471e-4
0.537, 8.473e-4
0.538, 8.435e-4
0.539, 8.357e-4
0.540, 8.303e-4
0.541, 8.329e-4
0.542, 8.401e-4
0.543, 8.453e-4
0.544, 8.505e-4
0.545, 8.534e-4
0.546, 8.540e-4
0.547, 8.499e-4
0.548, 8.408e-4
0.549, 8.340e-4
0.550, 8.398e-4
0.551, 8.479e-4
0.552, 8.542e-4
0.553, 8.589e-4
0.554, 8.582e-4
0.555, 8.573e-4
0.556, 8.534e-4
0.557, 8.454e-4
0.558, 8.425e-4
0.559, 8.461e-4
0.560, 8.521e-4
0.561, 8.579e-4
0.562, 8.628e-4
0.563, 8.667e-4
0.564, 8.676e-4
0.565, 8.614e-4
0.566, 8.523e-4
0.567, 8.475e-4
0.568, 8.525e-4
0.569, 8.599e-4
0.570, 8.036e-4
0.569, 5.214e-4
0.568, 2.640e-4
0.567, 6.681e-5
0.566, -8.752e-5
0.565, -2.113e-4
0.564, -3.069e-4
0.563, -3.817e-4
0.562, -4.397e-4
0.561, -4.814e-4
0.560, -5.154e-4
0.559, -5.499e-4
0.558, -5.825e-4
0.557, -6.131e-4
0.556, -6.407e-4
0.555, -6.603e-4
0.554, -6.733e-4
0.553, -6.815e-4
0.552, -6.848e-4
0.551, -6.892e-4
0.550, -6.995e-4
0.549, -7.129e-4
0.548, -7.252e-4
0.547, -7.358e-4
0.546, -7.415e-4
0.545, -7.440e-4
0.544, -7.446e-4
0.543, -7.410e-4
0.542, -7.406e-4
0.541, -7.470e-4
0.540, -7.536e-4
0.539, -7.599e-4
0.538, -7.657e-4
0.537, -7.691e-4
0.536, -7.710e-4
0.535, -7.688e-4
0.534, -7.622e-4
0.533, -7.601e-4
0.532, -7.638e-4
0.531, -7.703e-4
0.530, -7.780e-4
0.529, -7.829e-4
0.528, -7.855e-4
0.527, -7.850e-4
0.526, -7.799e-4
0.525, -7.718e-4
0.524, -7.693e-4
0.523, -7.736e-4
0.522, -7.806e-4
0.521, -7.865e-4
0.520, -7.906e-4
0.519, -7.924e-4
0.518, -7.909e-4
0.517, -7.859e-4
0.516, -7.778e-4
0.515, -7.779e-4
0.514, -7.835e-4
0.513, -7.887e-4
0.512, -7.935e-4
0.511, -7.970e-4
0.510, -7.980e-4
0.509, -7.964e-4
0.508, -7.889e-4
0.507, -7.819e-4
0.506, -7.838e-4
0.505, -7.892e-4
0.504, -7.946e-4
0.503, -7.990e-4
0.502, -8.016e-4
0.501, -8.030e-4
0.500, -8.006e-4
0.499, -7.917e-4
0.498, -7.864e-4
0.497, -7.892e-4
0.496, -7.939e-4
0.495, -7.990e-4
0.494, -8.033e-4
0.493, -8.064e-4
0.492, -8.057e-4
0.491, -8.004e-4
0.490, -7.926e-4
0.489, -7.891e-4
0.488, -7.933e-4
0.487, -7.992e-4
0.486, -8.050e-4
0.485, -8.093e-4
0.484, -8.095e-4
0.483, -8.072e-4
0.482, -8.021e-4
0.481, -7.943e-4
0.480, -7.932e-4
0.479, -7.974e-4
0.478, -8.028e-4
0.477, -8.093e-4
0.476, -8.121e-4
0.475, -8.119e-4
0.474, -8.092e-4
0.473, -8.009e-4
0.472, -7.944e-4
0.471, -7.966e-4
0.470, -7.405e-4
0.471, -4.650e-4
0.472, -2.206e-4
0.473, -3.388e-5
0.474, 1.134e-4
0.475, 2.317e-4
0.476, 3.275e-4
0.477, 4.009e-4
0.478, 4.580e-4
0.479, 4.999e-4
0.480, 5.310e-4
0.481, 5.581e-4
0.482, 5.894e-4
0.483, 6.206e-4
0.484, 6.481e-4
0.485, 6.706e-4
0.486, 6.863e-4
0.487, 6.957e-4
0.488, 6.995e-4
0.489, 7.027e-4
0.490, 7.106e-4
0.491, 7.253e-4
0.492, 7.401e-4
0.493, 7.524e-4
0.494, 7.586e-4
0.495, 7.608e-4
0.496, 7.605e-4
0.497, 7.587e-4
0.498, 7.594e-4
0.499, 7.661e-4
0.500, 7.771e-4
0.501, 7.875e-4
0.502, 7.943e-4
0.503, 7.958e-4
0.504, 7.932e-4
0.505, 7.889e-4
0.506, 7.854e-4
0.507, 7.882e-4
0.508, 7.974e-4
0.509, 8.070e-4
0.510, 8.147e-4
0.511, 8.172e-4
0.512, 8.156e-4
0.513, 8.095e-4
0.514, 8.030e-4
0.515, 8.021e-4
0.516, 8.073e-4
0.517, 8.161e-4
0.518, 8.248e-4
0.519, 8.294e-4
0.520, 8.287e-4
0.521, 8.235e-4
0.522, 8.168e-4
0.523, 8.150e-4
0.524, 8.169e-4
0.525, 8.220e-4
0.526, 8.297e-4
0.527, 8.357e-4
0.528, 8.389e-4
0.529, 8.385e-4
0.530, 8.308e-4
0.531, 8.240e-4
0.532, 8.218e-4
0.533, 8.262e-4
0.534, 8.359e-4
0.535, 8.439e-4
0.536, 8.470e-4
0.537, 8.464e-4
0.538, 8.408e-4
0.539, 8.332e-4
0.540, 8.308e-4
0.541, 8.325e-4
0.542, 8.375e-4
0.543, 8.430e-4
0.544, 8.505e-4
0.545, 8.542e-4
0.546, 8.504e-4
0.547, 8.429e-4
0.548, 8.382e-4
0.549, 8.371e-4
0.550, 8.407e-4
0.551, 8.460e-4
0.552, 8.530e-4
0.553, 8.587e-4
0.554, 8.582e-4
0.555, 8.531e-4
0.556, 8.455e-4
0.557, 8.398e-4
0.558, 8.411e-4
0.559, 8.469e-4
0.560, 8.537e-4
0.561, 8.611e-4
0.562, 8.642e-4
0.563, 8.643e-4
0.564, 8.587e-4
0.565, 8.492e-4
0.566, 8.449e-4
0.567, 8.495e-4
0.568, 8.569e-4
0.569, 8.647e-4
0.570, 8.062e-4
0.569, 5.205e-4
0.568, 2.612e-4
0.567, 6.066e-5
0.566, -9.481e-5
0.565, -2.133e-4
0.564, -3.027e-4
0.563, -3.729e-4
0.562, -4.275e-4
0.561, -4.732e-4
0.560, -5.164e-4
0.559, -5.580e-4
0.558, -5.933e-4
0.557, -6.208e-4
0.556, -6.412e-4
0.555, -6.542e-4
0.554, -6.605e-4
0.553, -6.661e-4
0.552, -6.798e-4
0.551, -6.970e-4
0.550, -7.121e-4
0.549, -7.240e-4
0.548, -7.304e-4
0.547, -7.341e-4
0.546, -7.333e-4
0.545, -7.297e-4
0.544, -7.329e-4
0.543, -7.409e-4
0.542, -7.493e-4
0.541, -7.569e-4
0.540, -7.606e-4
0.539, -7.643e-4
0.538, -7.646e-4
0.537, -7.602e-4
0.536, -7.570e-4
0.535, -7.587e-4
0.534, -7.642e-4
0.533, -7.731e-4
0.532, -7.789e-4
0.531, -7.817e-4
0.530, -7.799e-4
0.529, -7.728e-4
0.528, -7.673e-4
0.527, -7.667e-4
0.526, -7.719e-4
0.525, -7.819e-4
0.524, -7.897e-4
0.523, -7.921e-4
0.522, -7.892e-4
0.521, -7.814e-4
0.520, -7.753e-4
0.519, -7.739e-4
0.518, -7.767e-4
0.517, -7.837e-4
0.516, -7.921e-4
0.515, -7.989e-4
0.514, -7.985e-4
0.513, -7.914e-4
0.512, -7.837e-4
0.511, -7.808e-4
0.510, -7.806e-4
0.509, -7.849e-4
0.508, -7.936e-4
0.507, -8.001e-4
0.506, -8.004e-4
0.505, -7.974e-4
0.504, -7.911e-4
0.503, -7.845e-4
0.502, -7.837e-4
0.501, -7.889e-4
0.500, -7.950e-4
0.499, -8.012e-4
0.498, -8.066e-4
0.497, -8.042e-4
0.496, -7.957e-4
0.495, -7.881e-4
0.494, -7.869e-4
0.493, -7.911e-4
0.492, -7.976e-4
0.491, -8.039e-4
0.490, -8.072e-4
0.489, -8.075e-4
0.488, -8.035e-4
0.487, -7.960e-4
0.486, -7.914e-4
0.485, -7.922e-4
0.484, -7.964e-4
0.483, -8.033e-4
0.482, -8.111e-4
0.481, -8.121e-4
0.480, -8.080e-4
0.479, -8.009e-4
0.478, -7.950e-4
0.477, -7.953e-4
0.476, -7.992e-4
0.475, -8.054e-4
0.474, -8.116e-4
0.473, -8.147e-4
0.472, -8.143e-4
0.471, -8.079e-4
0.470, -7.374e-4
0.471, -4.524e-4
0.472, -2.042e-4
0.473, -2.316e-5
0.474, 1.122e-4
0.475, 2.201e-4
0.476, 3.097e-4
0.477, 3.857e-4
0.478, 4.509e-4
0.479, 5.047e-4
0.480, 5.482e-4
0.481, 5.784e-4
0.482, 5.967e-4
0.483, 6.130e-4
0.484, 6.318e-4
0.485, 6.518e-4
0.486, 6.748e-4
0.487, 6.955e-4
0.488, 7.105e-4
0.489, 7.201e-4
0.490, 7.216e-4
0.491, 7.206e-4
0.492, 7.226e-4
0.493, 7.314e-4
0.494, 7.462e-4
0.495, 7.602e-4
0.496, 7.703e-4
0.497, 7.749e-4
0.498, 7.727e-4
0.499, 7.694e-4
0.500, 7.682e-4
0.501, 7.703e-4
0.502, 7.788e-4
0.503, 7.887e-4
0.504, 7.975e-4
0.505, 8.025e-4
0.506, 8.039e-4
0.507, 8.004e-4
0.508, 7.943e-4
0.509, 7.918e-4
0.510, 7.974e-4
0.511, 8.048e-4
0.512, 8.112e-4
0.513, 8.175e-4
0.514, 8.205e-4
0.515, 8.178e-4
0.516, 8.121e-4
0.517, 8.081e-4
0.518, 8.089e-4
0.519, 8.151e-4
0.520, 8.226e-4
0.521, 8.283e-4
0.522, 8.295e-4
0.523, 8.286e-4
0.524, 8.244e-4
0.525, 8.191e-4
0.526, 8.191e-4
0.527, 8.231e-4
0.528, 8.294e-4
0.529, 8.359e-4
0.530, 8.403e-4
0.531, 8.414e-4
0.532, 8.357e-4
0.533, 8.265e-4
0.534, 8.243e-4
0.535, 8.269e-4
0.536, 8.330e-4
0.537, 8.403e-4
0.538, 8.465e-4
0.539, 8.501e-4
0.540, 8.472e-4
0.541, 8.381e-4
0.542, 8.312e-4
0.543, 8.296e-4
0.544, 8.350e-4
0.545, 8.427e-4
0.546, 8.502e-4
0.547, 8.563e-4
0.548, 8.559e-4
0.549, 8.471e-4
0.550, 8.379e-4
0.551, 8.345e-4
0.552, 8.379e-4
0.553, 8.461e-4
0.554, 8.546e-4
0.555, 8.615e-4
0.556, 8.628e-4
0.557, 8.575e-4
0.558, 8.480e-4
0.559, 8.415e-4
0.560, 8.416e-4
0.561, 8.475e-4
0.562, 8.543e-4
0.563, 8.620e-4
0.564, 8.669e-4
0.565, 8.658e-4
0.566, 8.591e-4
0.567, 8.511e-4
0.568, 8.470e-4
0.569, 8.489e-4
0.570, 7.936e-4
0.569, 5.142e-4
0.568, 2.626e-4
0.567, 6.978e-5
0.566, -8.328e-5
0.565, -2.078e-4
0.564, -3.072e-4
0.563, -3.853e-4
0.562, -4.436e-4
0.561, -4.856e-4
0.560, -5.189e-4
0.559, -5.500e-4
0.558, -5.814e-4
0.557, -6.118e-4
0.556, -6.386e-4
0.555, -6.605e-4
0.554, -6.753e-4
0.553, -6.831e-4
0.552, -6.866e-4
0.551, -6.901e-4
0.550, -6.983e-4
0.549, -7.108e-4
0.548, -7.254e-4
0.547, -7.375e-4
0.546, -7.444e-4
0.545, -7.456e-4
0.544, -7.435e-4
0.543, -7.410e-4
0.542, -7.400e-4
0.541, -7.451e-4
0.540, -7.533e-4
0.539, -7.641e-4
0.538, -7.715e-4
0.537, -7.706e-4
0.536, -7.684e-4
0.535, -7.647e-4
0.534, -7.603e-4
0.533, -7.605e-4
0.532, -7.656e-4
0.531, -7.738e-4
0.530, -7.814e-4
0.529, -7.840e-4
0.528, -7.834e-4
0.527, -7.796e-4
0.526, -7.743e-4
0.525, -7.708e-4
0.524, -7.718e-4
0.523, -7.764e-4
0.522, -7.832e-4
0.521, -7.893e-4
0.520, -7.920e-4
0.519, -7.912e-4
0.518, -7.868e-4
0.517, -7.814e-4
0.516, -7.776e-4
0.515, -7.795e-4
0.514, -7.851e-4
0.513, -7.918e-4
0.512, -7.979e-4
0.511, -7.995e-4
0.510, -7.973e-4
0.509, -7.930e-4
0.508, -7.848e-4
0.507, -7.814e-4
0.506, -7.854e-4
0.505, -7.915e-4
0.504, -7.971e-4
0.503, -8.006e-4
0.502, -8.006e-4
0.501, -7.995e-4
0.500, -7.947e-4
0.499, -7.859e-4
0.498, -7.846e-4
0.497, -7.901e-4
0.496, -7.961e-4
0.495, -8.019e-4
0.494, -8.035e-4
0.493, -8.047e-4
0.492, -8.044e-4
0.491, -7.989e-4
0.490, -7.904e-4
0.489, -7.886e-4
0.488, -7.936e-4
0.487, -7.989e-4
0.486, -8.039e-4
0.485, -8.075e-4
0.484, -8.088e-4
0.483, -8.072e-4
0.482, -8.009e-4
0.481, -7.912e-4
0.480, -7.907e-4
0.479, -7.970e-4
0.478, -8.023e-4
0.477, -8.080e-4
0.476, -8.107e-4
0.475, -8.113e-4
0.474, -8.107e-4
0.473, -8.041e-4
0.472, -7.956e-4
0.471, -7.955e-4
